C2H4 (wavelength = nm, xs = cm2/molecule)
wavelength          300K                
1.00000000e-01      4.00000000e-23      
1.00000000e+00      4.60000000e-20      
4.10000000e+00      1.30000000e-19      
4.30000000e+00      8.70000000e-20      
5.00000000e+00      1.40000000e-19      
1.00000000e+01      6.80000000e-19      
1.80000000e+01      4.50000000e-18      
2.00000000e+01      5.00000000e-18      
2.50000000e+01      7.50000000e-18      
3.00000000e+01      1.20000000e-17      
3.50000000e+01      1.75000000e-17      
4.00000000e+01      2.45000000e-17      
4.50000000e+01      3.20000000e-17      
5.00000000e+01      3.80000000e-17      
5.50000000e+01      4.12000000e-17      
5.64000000e+01      4.25000000e-17      
6.20000000e+01      4.95000000e-17      
6.89000000e+01      5.60000000e-17      
7.06000000e+01      5.75000000e-17      
7.75000000e+01      5.40000000e-17      
8.38000000e+01      5.95000000e-17      
8.82000000e+01      4.75000000e-17      
8.86000000e+01      4.70000000e-17      
8.98000000e+01      4.48000000e-17      
9.18000000e+01      4.10000000e-17      
9.45000000e+01      3.92000000e-17      
9.64000000e+01      3.80000000e-17      
1.01600000e+02      5.55000000e-17      
1.03300000e+02      5.45000000e-17      
1.06500000e+02      2.40000000e-17      
1.06600000e+02      2.42000000e-17      
1.08500000e+02      1.95000000e-17      
1.09600000e+02      1.74000000e-17      
1.10500000e+02      1.86000000e-17      
1.11500000e+02      1.83000000e-17      
1.12300000e+02      1.72000000e-17      
1.12700000e+02      1.35000000e-17      
1.14900000e+02      1.42000000e-17      
1.15000000e+02      1.52000000e-17      
1.17800000e+02      1.79000000e-17      
1.18000000e+02      1.87000000e-17      
1.18600000e+02      2.09000000e-17      
1.19100000e+02      1.96000000e-17      
1.20100000e+02      2.21000000e-17      
1.20300000e+02      2.05000000e-17      
1.20800000e+02      2.47000000e-17      
1.21300000e+02      2.10000000e-17      
1.22200000e+02      2.82000000e-17      
1.22400000e+02      2.78000000e-17      
1.22600000e+02      2.92000000e-17      
1.22800000e+02      3.05000000e-17      
1.23100000e+02      2.39000000e-17      
1.24100000e+02      3.05000000e-17      
1.24400000e+02      2.72000000e-17      
1.24800000e+02      3.48000000e-17      
1.25100000e+02      2.64000000e-17      
1.25400000e+02      2.54000000e-17      
1.25600000e+02      2.70000000e-17      
1.26300000e+02      2.71000000e-17      
1.26400000e+02      2.80000000e-17      
1.27100000e+02      2.79000000e-17      
1.27300000e+02      2.53000000e-17      
1.27600000e+02      2.93000000e-17      
1.28000000e+02      2.82000000e-17      
1.28400000e+02      3.29000000e-17      
1.29400000e+02      1.60000000e-17      
1.29800000e+02      1.42000000e-17      
1.30200000e+02      1.62000000e-17      
1.31200000e+02      1.20000000e-17      
1.31700000e+02      1.56000000e-17      
1.32300000e+02      1.50000000e-17      
1.33000000e+02      1.66000000e-17      
1.33500000e+02      2.05000000e-17      
1.33800000e+02      1.95000000e-17      
1.34200000e+02      2.20000000e-17      
1.35200000e+02      1.10000000e-17      
1.35600000e+02      2.99000000e-17      
1.36000000e+02      2.86000000e-17      
1.36400000e+02      3.00000000e-17      
1.36600000e+02      2.43000000e-17      
1.37000000e+02      2.56000000e-17      
1.37600000e+02      6.29000000e-18      
1.38300000e+02      3.58000000e-17      
1.38800000e+02      2.33000000e-17      
1.39000000e+02      3.15000000e-17      
1.39500000e+02      6.40000000e-18      
1.40100000e+02      6.33000000e-18      
1.40200000e+02      5.06000000e-18      
1.40800000e+02      4.73000000e-18      
1.41400000e+02      8.90000000e-18      
1.42100000e+02      6.25000000e-18      
1.42800000e+02      1.00000000e-17      
1.43300000e+02      8.23000000e-18      
1.44200000e+02      1.18000000e-17      
1.44500000e+02      9.90000000e-18      
1.45200000e+02      1.23000000e-17      
1.46000000e+02      1.26000000e-17      
1.47300000e+02      1.50000000e-17      
1.47600000e+02      1.47000000e-17      
1.48700000e+02      1.79000000e-17      
1.49500000e+02      1.74000000e-17      
1.50000000e+02      1.90000000e-17      
1.50900000e+02      1.81000000e-17      
1.52100000e+02      2.12000000e-17      
1.52600000e+02      2.01000000e-17      
1.53300000e+02      2.21000000e-17      
1.53600000e+02      2.15000000e-17      
1.55400000e+02      2.48000000e-17      
1.55900000e+02      2.26000000e-17      
1.56700000e+02      2.67000000e-17      
1.57500000e+02      2.27000000e-17      
1.58600000e+02      2.94000000e-17      
1.59200000e+02      2.67000000e-17      
1.60000000e+02      3.23000000e-17      
1.60900000e+02      2.69000000e-17      
1.61800000e+02      3.83000000e-17      
1.62600000e+02      3.04000000e-17      
1.63400000e+02      3.89000000e-17      
1.64400000e+02      2.76000000e-17      
1.65300000e+02      4.57000000e-17      
1.66000000e+02      2.93000000e-17      
1.66600000e+02      4.46000000e-17      
1.67600000e+02      2.26000000e-17      
1.68300000e+02      2.01000000e-17      
1.69100000e+02      5.00000000e-17      
1.69800000e+02      2.57000000e-17      
1.70400000e+02      5.65000000e-17      
1.71100000e+02      1.98000000e-17      
1.72200000e+02      1.08000000e-17      
1.73200000e+02      4.04000000e-17      
1.73800000e+02      1.58000000e-17      
1.74400000e+02      5.19000000e-17      
1.75200000e+02      8.71000000e-18      
1.77000000e+02      2.74000000e-18      
1.77900000e+02      3.42000000e-18      
1.79300000e+02      1.57000000e-18      
1.80200000e+02      1.63000000e-18      
1.81800000e+02      6.36000000e-19      
1.82700000e+02      8.93000000e-19      
1.84700000e+02      2.42000000e-19      
1.85500000e+02      4.16000000e-19      
1.87300000e+02      1.23000000e-19      
1.88100000e+02      1.49000000e-19      
1.89600000e+02      3.91000000e-20      
1.90700000e+02      5.29000000e-20      
1.92900000e+02      1.30000000e-20      
1.93900000e+02      2.38000000e-20      
1.95800000e+02      5.60000000e-20      
1.97300000e+02      8.60000000e-20      
